# Pbox  91835.05   2 4095  0.0     0    1.0000 0.03910     6
# VJ3.0  pw (us)  pwr  pwrf  dres  dmf  dcyc   B1max (kHz)  Stype
# ---------------------------------------------------------------
# Pxsim 0.0918351 35.9973 0.000 1360.8 0.0000000 0.0000000 0.00
# data: pw (s) B1max (Hz) status sw (Hz) T1 (s)   T2 (s) RDC (Hz)
# ---------------------------------------------------------------
# Pbox.inp data :
# ~~~~~~~~~~~~~~~~~~~~~~~~~~~Waves~~~~~~~~~~~~~~~~~~~~~~~~~~~~~~~~~~
#   shape   bw(/pw)   ofs  st  ph  fla  trev  d1  d2   d0   wrp  php
# ~~~~~~~~~~~~~~~~~~~~~~~~~~~~~~~~~~~~~~~~~~~~~~~~~~~~~~~~~~~~~~~~~~
# { q3 39.2 562.8 }
#
# type      = r          mod       = n          dres      = n         
# steps     = n          stepsize  = n          attn      = i         
# refofs    = n          wrap      = n          sfrq      = n         
# sucyc     = d          reps      = 2          header    = y         
# bscor     = n          pad1      = n          pad2      = n         
# bsim      = n          T1        = n          T2        = n         
# rdc       = n          dcyc      = n          sw        = n         
#
# RF Calibration Data :  ref_pwr   = 60         ref_pw90  = 8.05
# ~~~~~~~~~~~~~~~~~~~~~
###
# ------------------- Shape data ------------------
# pwtot      = 0.0918351 (total pw, s)
# power      = 2 (power level, dB)
# pwrf       = 4095 (fine power)
# B1max      = 0.0391 (B1max, kHz)
# B1rms      = 0.0200 (B1[RMS], kHz)
# nptot      = 677 (total number of steps)
# stepsize   = 135.65 (length of a single step, us)
# maxamp     = 942.8 (max amplitude)
# maximum phase increment = 27.48 deg
# ------------------------------------------------- 
#      phase      amplitude   length     gate 
# ------------------------------------------------- 
        0.00      1023.00      0.0        0
     127.226       48.672      1.0        1
     154.710       44.888      1.0        1
     182.194       41.207      1.0        1
     209.677       37.634      1.0        1
     237.161       34.172      1.0        1
     264.645       30.826      1.0        1
     292.129       27.599      1.0        1
     319.613       24.495      1.0        1
     347.096       21.516      1.0        1
      14.580       18.665      1.0        1
      42.064       15.944      1.0        1
      69.548       13.355      1.0        1
      97.031       10.899      1.0        1
     124.515        8.577      1.0        1
     151.999        6.389      1.0        1
     179.483        4.336      1.0        1
     206.966        2.416      1.0        1
     234.450        0.630      1.0        1
      81.934        0.000      1.0        0
     109.418        0.548      1.0        1
     136.902        1.944      1.0        1
     164.385        3.214      1.0        1
     191.869        4.361      1.0        1
     219.353        5.389      1.0        1
     246.837        6.302      1.0        1
     274.320        7.103      1.0        1
     301.804        7.796      1.0        1
     329.288        8.387      1.0        1
     356.772        8.881      1.0        1
      24.256        9.283      1.0        1
      51.739        9.597      1.0        1
      79.223        9.831      1.0        1
     106.707        9.991      1.0        1
     134.191       10.081      1.0        1
     161.674       10.109      1.0        1
     189.158       10.082      1.0        1
     216.642       10.005      1.0        1
     244.126        9.886      1.0        1
     271.610        9.731      1.0        1
     299.093        9.547      1.0        1
     326.577        9.340      1.0        1
     354.061        9.118      1.0        1
      21.545        8.887      1.0        1
      49.028        8.653      1.0        1
      76.512        8.424      1.0        1
     103.996        8.205      1.0        1
     131.480        8.002      1.0        1
     158.964        7.823      1.0        1
     186.447        7.671      1.0        1
     213.931        7.554      1.0        1
     241.415        7.476      1.0        1
     268.899        7.443      1.0        1
     296.382        7.460      1.0        1
     323.866        7.531      1.0        1
     351.350        7.661      1.0        1
      18.834        7.854      1.0        1
      46.317        8.114      1.0        1
      73.801        8.444      1.0        1
     101.285        8.847      1.0        1
     128.769        9.328      1.0        1
     156.253        9.887      1.0        1
     183.736       10.529      1.0        1
     211.220       11.254      1.0        1
     238.704       12.066      1.0        1
     266.188       12.964      1.0        1
     293.671       13.952      1.0        1
     321.155       15.030      1.0        1
     348.639       16.198      1.0        1
      16.123       17.458      1.0        1
      43.607       18.811      1.0        1
      71.090       20.255      1.0        1
      98.574       21.793      1.0        1
     126.058       23.422      1.0        1
     153.542       25.145      1.0        1
     181.025       26.959      1.0        1
     208.509       28.866      1.0        1
     235.993       30.864      1.0        1
     263.477       32.953      1.0        1
     290.961       35.133      1.0        1
     318.444       37.403      1.0        1
     345.928       39.762      1.0        1
      13.412       42.211      1.0        1
      40.896       44.748      1.0        1
      68.379       47.373      1.0        1
      95.863       50.087      1.0        1
     123.347       52.888      1.0        1
     150.831       55.776      1.0        1
     178.315       58.753      1.0        1
     205.798       61.817      1.0        1
     233.282       64.969      1.0        1
     260.766       68.209      1.0        1
     288.250       71.539      1.0        1
     315.733       74.958      1.0        1
     343.217       78.467      1.0        1
      10.701       82.068      1.0        1
      38.185       85.761      1.0        1
      65.668       89.549      1.0        1
      93.152       93.432      1.0        1
     120.636       97.412      1.0        1
     148.120      101.491      1.0        1
     175.604      105.671      1.0        1
     203.087      109.955      1.0        1
     230.571      114.343      1.0        1
     258.055      118.839      1.0        1
     285.539      123.446      1.0        1
     313.022      128.165      1.0        1
     340.506      133.000      1.0        1
       7.990      137.952      1.0        1
      35.474      143.025      1.0        1
      62.958      148.222      1.0        1
      90.441      153.545      1.0        1
     117.925      158.997      1.0        1
     145.409      164.581      1.0        1
     172.893      170.298      1.0        1
     200.376      176.153      1.0        1
     227.860      182.148      1.0        1
     255.344      188.284      1.0        1
     282.828      194.563      1.0        1
     310.312      200.990      1.0        1
     337.795      207.564      1.0        1
       5.279      214.287      1.0        1
      32.763      221.162      1.0        1
      60.247      228.189      1.0        1
      87.730      235.370      1.0        1
     115.214      242.704      1.0        1
     142.698      250.193      1.0        1
     170.182      257.837      1.0        1
     197.666      265.635      1.0        1
     225.149      273.587      1.0        1
     252.633      281.693      1.0        1
     280.117      289.950      1.0        1
     307.601      298.357      1.0        1
     335.084      306.913      1.0        1
       2.568      315.614      1.0        1
      30.052      324.459      1.0        1
      57.536      333.445      1.0        1
      85.020      342.567      1.0        1
     112.503      351.822      1.0        1
     139.987      361.206      1.0        1
     167.471      370.714      1.0        1
     194.955      380.341      1.0        1
     222.438      390.083      1.0        1
     249.922      399.932      1.0        1
     277.406      409.884      1.0        1
     304.890      419.932      1.0        1
     332.373      430.069      1.0        1
     359.857      440.288      1.0        1
      27.341      450.581      1.0        1
      54.825      460.942      1.0        1
      82.309      471.362      1.0        1
     109.792      481.834      1.0        1
     137.276      492.348      1.0        1
     164.760      502.896      1.0        1
     192.244      513.470      1.0        1
     219.727      524.060      1.0        1
     247.211      534.658      1.0        1
     274.695      545.253      1.0        1
     302.179      555.837      1.0        1
     329.663      566.400      1.0        1
     357.146      576.932      1.0        1
      24.630      587.424      1.0        1
      52.114      597.866      1.0        1
      79.598      608.248      1.0        1
     107.081      618.560      1.0        1
     134.565      628.793      1.0        1
     162.049      638.937      1.0        1
     189.533      648.982      1.0        1
     217.017      658.918      1.0        1
     244.500      668.736      1.0        1
     271.984      678.427      1.0        1
     299.468      687.981      1.0        1
     326.952      697.388      1.0        1
     354.435      706.641      1.0        1
      21.919      715.729      1.0        1
      49.403      724.643      1.0        1
      76.887      733.377      1.0        1
     104.371      741.919      1.0        1
     131.854      750.264      1.0        1
     159.338      758.402      1.0        1
     186.822      766.325      1.0        1
     214.306      774.026      1.0        1
     241.789      781.498      1.0        1
     269.273      788.732      1.0        1
     296.757      795.723      1.0        1
     324.241      802.463      1.0        1
     351.724      808.946      1.0        1
      19.208      815.165      1.0        1
      46.692      821.115      1.0        1
      74.176      826.789      1.0        1
     101.660      832.181      1.0        1
     129.143      837.288      1.0        1
     156.627      842.103      1.0        1
     184.111      846.621      1.0        1
     211.595      850.838      1.0        1
     239.078      854.749      1.0        1
     266.562      858.350      1.0        1
     294.046      861.638      1.0        1
     321.530      864.608      1.0        1
     349.014      867.257      1.0        1
      16.497      869.581      1.0        1
      43.981      871.578      1.0        1
      71.465      873.245      1.0        1
      98.949      874.580      1.0        1
     126.432      875.579      1.0        1
     153.916      876.240      1.0        1
     181.400      876.563      1.0        1
     208.884      876.545      1.0        1
     236.368      876.184      1.0        1
     263.851      875.480      1.0        1
     291.335      874.432      1.0        1
     318.819      873.038      1.0        1
     346.303      871.298      1.0        1
      13.786      869.212      1.0        1
      41.270      866.780      1.0        1
      68.754      864.002      1.0        1
      96.238      860.877      1.0        1
     123.722      857.408      1.0        1
     151.205      853.594      1.0        1
     178.689      849.437      1.0        1
     206.173      844.938      1.0        1
     233.657      840.098      1.0        1
     261.140      834.919      1.0        1
     288.624      829.404      1.0        1
     316.108      823.554      1.0        1
     343.592      817.372      1.0        1
      11.075      810.860      1.0        1
      38.559      804.022      1.0        1
      66.043      796.861      1.0        1
      93.527      789.379      1.0        1
     121.011      781.582      1.0        1
     148.494      773.472      1.0        1
     175.978      765.054      1.0        1
     203.462      756.331      1.0        1
     230.946      747.309      1.0        1
     258.429      737.993      1.0        1
     285.913      728.386      1.0        1
     313.397      718.495      1.0        1
     340.881      708.325      1.0        1
       8.365      697.881      1.0        1
      35.848      687.169      1.0        1
      63.332      676.194      1.0        1
      90.816      664.964      1.0        1
     118.300      653.484      1.0        1
     145.783      641.760      1.0        1
     173.267      629.800      1.0        1
     200.751      617.608      1.0        1
     228.235      605.194      1.0        1
     255.719      592.562      1.0        1
     283.202      579.721      1.0        1
     310.686      566.676      1.0        1
     338.170      553.436      1.0        1
       5.654      540.007      1.0        1
      33.137      526.396      1.0        1
      60.621      512.611      1.0        1
      88.105      498.659      1.0        1
     115.589      484.546      1.0        1
     143.073      470.280      1.0        1
     170.556      455.868      1.0        1
     198.040      441.317      1.0        1
     225.524      426.634      1.0        1
     253.008      411.825      1.0        1
     280.491      396.898      1.0        1
     307.975      381.860      1.0        1
     335.459      366.716      1.0        1
       2.943      351.474      1.0        1
      30.427      336.139      1.0        1
      57.910      320.718      1.0        1
      85.394      305.217      1.0        1
     112.878      289.641      1.0        1
     140.362      273.997      1.0        1
     167.845      258.289      1.0        1
     195.329      242.524      1.0        1
     222.813      226.706      1.0        1
     250.297      210.840      1.0        1
     277.780      194.931      1.0        1
     305.264      178.985      1.0        1
     332.748      163.004      1.0        1
       0.232      146.993      1.0        1
      27.716      130.957      1.0        1
      55.199      114.899      1.0        1
      82.683       98.824      1.0        1
     110.167       82.734      1.0        1
     137.651       66.632      1.0        1
     165.134       50.523      1.0        1
     192.618       34.410      1.0        1
     220.102       18.294      1.0        1
     247.586        2.180      1.0        1
      95.070       11.930      1.0        1
     122.553       28.034      1.0        1
     150.037       44.128      1.0        1
     177.521       60.211      1.0        1
     205.005       76.279      1.0        1
     232.488       92.332      1.0        1
     259.972      108.365      1.0        1
     287.456      124.376      1.0        1
     314.940      140.364      1.0        1
     342.424      156.326      1.0        1
       9.907      172.258      1.0        1
      37.391      188.160      1.0        1
      64.875      204.028      1.0        1
      92.359      219.860      1.0        1
     119.842      235.652      1.0        1
     147.326      251.402      1.0        1
     174.810      267.107      1.0        1
     202.294      282.764      1.0        1
     229.778      298.369      1.0        1
     257.261      313.919      1.0        1
     284.745      329.411      1.0        1
     312.229      344.841      1.0        1
     339.713      360.205      1.0        1
       7.196      375.498      1.0        1
      34.680      390.716      1.0        1
      62.164      405.856      1.0        1
      89.648      420.911      1.0        1
     117.131      435.878      1.0        1
     144.615      450.751      1.0        1
     172.099      465.524      1.0        1
     199.583      480.193      1.0        1
     227.067      494.752      1.0        1
     254.550      509.194      1.0        1
     282.034      523.514      1.0        1
     309.518      537.705      1.0        1
     337.002      551.762      1.0        1
       4.485      565.677      1.0        1
      31.969      579.443      1.0        1
      59.453      593.055      1.0        1
      86.937      606.504      1.0        1
     114.421      619.785      1.0        1
     141.904      632.889      1.0        1
     169.388      645.811      1.0        1
     196.872      658.541      1.0        1
     224.356      671.074      1.0        1
     251.839      683.401      1.0        1
     279.323      695.516      1.0        1
     306.807      707.411      1.0        1
     334.291      719.079      1.0        1
       1.775      730.513      1.0        1
      29.258      741.706      1.0        1
      56.742      752.650      1.0        1
      84.226      763.339      1.0        1
     111.710      773.766      1.0        1
     139.193      783.925      1.0        1
     166.677      793.808      1.0        1
     194.161      803.411      1.0        1
     221.645      812.726      1.0        1
     249.129      821.748      1.0        1
     276.612      830.471      1.0        1
     304.096      838.891      1.0        1
     331.580      847.001      1.0        1
     359.064      854.798      1.0        1
      26.547      862.277      1.0        1
      54.031      869.434      1.0        1
      81.515      876.265      1.0        1
     108.999      882.767      1.0        1
     136.482      888.936      1.0        1
     163.966      894.770      1.0        1
     191.450      900.267      1.0        1
     218.934      905.424      1.0        1
     246.418      910.240      1.0        1
     273.901      914.713      1.0        1
     301.385      918.843      1.0        1
     328.869      922.630      1.0        1
     356.353      926.072      1.0        1
      23.836      929.171      1.0        1
      51.320      931.926      1.0        1
      78.804      934.340      1.0        1
     106.288      936.413      1.0        1
     133.772      938.146      1.0        1
     161.255      939.543      1.0        1
     188.739      940.605      1.0        1
     216.223      941.336      1.0        1
     243.707      941.738      1.0        1
     271.190      941.815      1.0        1
     298.674      941.570      1.0        1
     326.158      941.008      1.0        1
     353.642      940.132      1.0        1
      21.126      938.949      1.0        1
      48.609      937.461      1.0        1
      76.093      935.675      1.0        1
     103.577      933.596      1.0        1
     131.061      931.230      1.0        1
     158.544      928.582      1.0        1
     186.028      925.659      1.0        1
     213.512      922.466      1.0        1
     240.996      919.011      1.0        1
     268.480      915.299      1.0        1
     295.963      911.338      1.0        1
     323.447      907.135      1.0        1
     350.931      902.696      1.0        1
      18.415      898.029      1.0        1
      45.898      893.142      1.0        1
      73.382      888.041      1.0        1
     100.866      882.734      1.0        1
     128.350      877.229      1.0        1
     155.834      871.534      1.0        1
     183.317      865.656      1.0        1
     210.801      859.604      1.0        1
     238.285      853.385      1.0        1
     265.769      847.007      1.0        1
     293.252      840.478      1.0        1
     320.736      833.807      1.0        1
     348.220      827.001      1.0        1
      15.704      820.068      1.0        1
      43.187      813.017      1.0        1
      70.671      805.856      1.0        1
      98.155      798.593      1.0        1
     125.639      791.236      1.0        1
     153.123      783.794      1.0        1
     180.606      776.274      1.0        1
     208.090      768.685      1.0        1
     235.574      761.034      1.0        1
     263.058      753.331      1.0        1
     290.541      745.583      1.0        1
